File: FTIR C.txt
##TITLE=No Description
##DATA TYPE=INFRARED SPECTRUM
##XUNITS=1/CM
##YUNITS=%T
349.116  	39.4521
364.546  	35.1728
379.977  	196.156
395.407  	84.3878
410.838  	118.41
426.268  	101.959
441.699  	104.608
457.129  	104.516
472.56  	103.251
487.99  	104.25
503.421  	104.007
518.852  	103.737
534.282  	103.548
549.713  	103.223
565.143  	101.801
580.574  	101.775
596.004  	102.296
611.435  	102.341
626.865  	103.072
642.296  	103.222
657.726  	103.465
673.157  	102.901
688.587  	102.629
704.018  	102.247
719.448  	102.524
734.879  	102.929
750.309  	102.829
765.74  	102.407
781.17  	102.182
796.601  	102.112
812.032  	101.828
827.462  	101.622
842.893  	101.15
858.323  	98.7968
873.754  	98.7064
889.184  	102.208
904.615  	101.936
920.045  	101.569
935.476  	101.001
950.906  	100.609
966.337  	100.364
981.767  	100.078
997.198  	98.8533
1012.63  	97.2787
1028.06  	96.3102
1043.49  	96.0143
1058.92  	96.2398
1074.35  	96.9811
1089.78  	97.6882
1105.21  	98.1182
1120.64  	98.4185
1136.07  	98.8948
1151.5  	99.3126
1166.93  	99.7009
1182.36  	99.7391
1197.79  	99.5538
1213.23  	99.1965
1228.66  	99.1711
1244.09  	98.8331
1259.52  	98.3286
1274.95  	97.6332
1290.38  	96.9651
1305.81  	96.3838
1321.24  	95.074
1336.67  	93.9212
1352.1  	92.1008
1367.53  	89.8625
1382.96  	88.4073
1398.39  	88.1256
1413.82  	88.9624
1429.25  	89.7854
1444.68  	90.5814
1460.11  	90.1752
1475.54  	92.1384
1490.97  	94.183
1506.41  	96.3902
1521.84  	97.6387
1537.27  	99.9634
1552.7  	100.611
1568.13  	101
1583.56  	100.931
1598.99  	100.975
1614.42  	101.331
1629.85  	101.078
1645.28  	101.409
1660.71  	101.223
1676.14  	100.766
1691.57  	101.065
1707  	100.903
1722.43  	101.097
1737.86  	101.002
1753.29  	100.591
1768.72  	100.655
1784.15  	100.432
1799.59  	100.428
1815.02  	100.467
1830.45  	100.122
1845.88  	100.073
1861.31  	100.197
1876.74  	100.156
1892.17  	100.008
1907.6  	99.8515
1923.03  	99.6314
1938.46  	99.6695
1953.89  	99.5247
1969.32  	99.0435
1984.75  	99.3559
2000.18  	99.5696
2015.61  	99.3839
2031.04  	99.2001
2046.47  	99.1637
2061.9  	99.0269
2077.33  	99.0679
2092.77  	98.7318
2108.2  	98.9306
2123.63  	98.9022
2139.06  	98.8274
2154.49  	98.5896
2169.92  	98.7363
2185.35  	98.394
2200.78  	98.4239
2216.21  	98.2383
2231.64  	98.439
2247.07  	98.3456
2262.5  	98.2539
2277.93  	98.0456
2293.36  	98.1113
2308.79  	98.1298
2324.22  	98.1556
2339.65  	98.1238
2355.08  	98.1895
2370.51  	97.991
2385.95  	98.0298
2401.38  	98.0233
2416.81  	97.9993
2432.24  	97.9312
2447.67  	97.9869
2463.1  	97.8663
2478.53  	97.8266
2493.96  	97.8757
2509.39  	97.7689
2524.82  	97.6276
2540.25  	97.7456
2555.68  	97.6805
2571.11  	97.6027
2586.54  	97.6168
2601.97  	97.5661
2617.4  	97.6073
2632.83  	97.5675
2648.26  	97.5174
2663.69  	97.4649
2679.13  	97.4014
2694.56  	97.3198
2709.99  	97.2801
2725.42  	97.1947
2740.85  	97.0596
2756.28  	96.9773
2771.71  	96.86
2787.14  	96.8179
2802.57  	96.7205
2818  	96.595
2833.43  	96.5304
2848.86  	96.5039
2864.29  	96.3827
2879.72  	96.3452
2895.15  	96.3515
2910.58  	96.3602
2926.01  	96.3009
2941.44  	96.3528
2956.87  	96.3347
2972.31  	96.3578
2987.74  	96.4036
3003.17  	96.4718
3018.6  	96.3672
3034.03  	96.3739
3049.46  	96.3537
3064.89  	96.3705
3080.32  	96.4013
3095.75  	96.3459
3111.18  	96.3287
3126.61  	96.485
3142.04  	96.5309
3157.47  	96.4327
3172.9  	96.5358
3188.33  	96.5925
3203.76  	96.7311
3219.19  	96.7607
3234.62  	96.8806
3250.05  	96.8661
3265.49  	96.9069
3280.92  	96.9589
3296.35  	96.8979
3311.78  	97.0815
3327.21  	97.1056
3342.64  	97.1146
3358.07  	97.0387
3373.5  	97.1228
3388.93  	97.106
3404.36  	97.1415
3419.79  	97.2449
3435.22  	97.2966
3450.65  	97.1712
3466.08  	97.2388
3481.51  	97.3949
3496.94  	97.4412
3512.37  	97.44
3527.8  	97.3646
3543.23  	97.6577
3558.67  	97.6215
3574.1  	97.6577
3589.53  	97.167
3604.96  	97.9631
3620.39  	97.0584
3635.82  	97.5941
3651.25  	96.6718
3666.68  	98.1084
3682.11  	97.7061
3697.54  	97.7901
3712.97  	96.8915
3728.4  	97.7591
3743.83  	97.4521
3759.26  	97.3995
3774.69  	97.8403
3790.12  	97.6889
3805.55  	97.6443
3820.98  	97.2065
3836.42  	97.7961
3851.85  	98.024
3867.28  	97.8228
3882.71  	97.728
3898.14  	97.9118
3913.57  	97.7692
3929  	97.6973
3944.43  	97.4549
3959.86  	97.6587
3975.29  	97.5536
3990.72  	97.6405
4006.15  	97.6333
4021.58  	97.6735
4037.01  	97.583
4052.44  	97.6775
4067.87  	97.6554
4083.3  	97.6647
4098.73  	97.6301
4114.16  	97.6862
4129.6  	97.7191
4145.03  	97.6568
4160.46  	97.681
4175.89  	97.6614
4191.32  	97.5495
4206.75  	97.6207
4222.18  	97.6066
4237.61  	97.6445
4253.04  	97.5403
4268.47  	97.692
4283.9  	97.753
4299.33  	97.7436
4314.76  	97.7251
4330.19  	97.708
4345.62  	97.6753
4361.05  	97.6662
4376.48  	97.6647
4391.91  	97.7549
4407.34  	97.5946
4422.78  	97.6335
4438.21  	97.6559
4453.64  	97.6484
4469.07  	97.6927
4484.5  	97.7141
4499.93  	97.725