File: XRD C.uxd
;content of C:\Users\HF1N8D2\AppData\Local\Temp\92fetmp887375713.raw - (Diffrac Plus V4 file)
_FILEVERSION = 3
_SAMPLE = Commander Sample ID
_+SAMPLE
_USER = Lab Manager
_GONIOMETER_CODE = 21
_STAGE_CODE = 7
; Goniometer : D8 theta/theta, stage : Chi drive
_SAMPLE_CHANGER_CODE = 0
_ATTACHMENTS_CODE = 0
_GONIOMETER_RADIUS = 280
_MONOCHROMATOR = 0
; Incident beam monochromator : None
_BETA_FILTER = N
_ANALYZER_CODE = 0
; Received beam analyzer : None
_DATEMEASURED = 01-Aug-2021 15:42:48
_RUNTIME = 7.858514
_WL_UNIT = A
_WL1 = 1.5406
_WL2 = 1.54439
_WL3 = 1.39222
_WLRATIO = 0.5
_ANODE = Cu
_V4_INF_USER = Lab Manager
_V4_INF_SAMPLEID = Commander Sample ID
_V4_INF_CREATOR = V5Converter
_V4_INF_CREATOR_VERSION = 6.1.2.0

; Data for range 1
_DRIVE = COUPLED
_STEPTIME = 79.5
_STEPSIZE = 0.050057
_STEPMODE = C
_START = 5.0001
_THETA = 2.50005
_2THETA = 5.0001
_DETECTORSLIT = out
_TIMESTARTED = 0
_ROTATION_SPEED = 5
_KV = 40
_MA = 25
_RANGE_WL = 1.5406
_3DPLANE = 0
_V4_PSD2THETA = 9999
_V4_PSDCHANNEL1 = 0
_V4_PSDAPERTURE = 2.436459
_V4_PSDTYPE = 5
_V4_PSDFIXED = 0
_V4_COUNTERS_MASK = 1
_V4_DRIVES_MASK = 0
_V4_ENCODERS_MASK = 0
_2THETACOUNTS = 1
; 2THETA	Cnt2_D1
5.000100	92
5.250386	106
5.500672	116
5.750958	84
6.001244	98
6.251531	95
6.501817	88
6.752103	88
7.002389	111
7.252675	120
7.502961	120
7.753247	119
8.003533	108
8.253819	132
8.504105	133
8.754392	140
9.004678	134
9.254964	163
9.505250	139
9.755536	137
10.0058	133
10.2561	155
10.5064	161
10.7567	154
11.007	192
11.2573	164
11.5075	172
11.7578	174
12.0081	146
12.2584	139
12.5087	165
12.759	167
13.0093	160
13.2595	187
13.5098	232
13.7601	174
14.0104	202
14.2607	163
14.511	162
14.7613	155
15.0115	170
15.2618	153
15.5121	162
15.7624	157
16.0127	171
16.263	192
16.5133	174
16.7635	160
17.0138	171
17.2641	173
17.5144	169
17.7647	191
18.015	186
18.2653	165
18.5156	182
18.7658	193
19.0161	203
19.2664	194
19.5167	276
19.767	240
20.0173	197
20.2676	191
20.5178	229
20.7681	263
21.0184	220
21.2687	209
21.519	226
21.7693	233
22.0196	191
22.2698	201
22.5201	220
22.7704	225
23.0207	202
23.271	228
23.5213	250
23.7716	237
24.0218	243
24.2721	238
24.5224	228
24.7727	217
25.023	222
25.2733	241
25.5236	286
25.7738	294
26.0241	280
26.2744	240
26.5247	239
26.775	284
27.0253	280
27.2756	244
27.5258	225
27.7761	253
28.0264	492
28.2767	858
28.527	284
28.7773	222
29.0276	237
29.2779	262
29.5281	597
29.7784	507
30.0287	395
30.279	315
30.5293	305
30.7796	284
31.0299	269
31.2801	234
31.5304	217
31.7807	234
32.031	316
32.2813	257
32.5316	251
32.7819	205
33.0321	231
33.2824	312
33.5327	423
33.783	290
34.0333	582
34.2836	617
34.5339	265
34.7841	194
35.0344	187
35.2847	223
35.535	216
35.7853	169
36.0356	207
36.2859	188
36.5361	174
36.7864	181
37.0367	195
37.287	183
37.5373	197
37.7876	202
38.0379	192
38.2882	185
38.5384	178
38.7887	185
39.039	200
39.2893	216
39.5396	304
39.7899	215
40.0402	223
40.2904	236
40.5407	242
40.791	280
41.0413	296
41.2916	258
41.5419	257
41.7922	271
42.0424	325
42.2927	260
42.543	224
42.7933	244
43.0436	235
43.2939	278
43.5442	224
43.7944	209
44.0447	215
44.295	194
44.5453	175
44.7956	297
45.0459	253
45.2962	250
45.5464	214
45.7967	222
46.047	202
46.2973	239
46.5476	224
46.7979	214
47.0482	219
47.2985	247
47.5487	261
47.799	210
48.0493	179
48.2996	221
48.5499	356
48.8002	281
49.0505	203
49.3007	162
49.551	210
49.8013	222
50.0516	259
50.3019	207
50.5522	181
50.8025	206
51.0527	201
51.303	174
51.5533	176
51.8036	148
52.0539	199
52.3042	221
52.5545	199
52.8047	155
53.055	138
53.3053	156
53.5556	215
53.8059	178
54.0562	208
54.3065	211
54.5567	183
54.807	220
55.0573	183
55.3076	176
55.5579	159
55.8082	190
56.0585	198
56.3088	160
56.559	176
56.8093	167
57.0596	192
57.3099	198
57.5602	203
57.8105	179
58.0608	164
58.311	190
58.5613	164
58.8116	143
59.0619	143
59.3122	171
59.5625	196
59.8128	163
60.063	157
60.3133	127
60.5636	212
60.8139	252
61.0642	211
61.3145	177
61.5648	161
61.815	172
62.0653	204
62.3156	173
62.5659	158
62.8162	160
63.0665	191
63.3168	163
63.567	123
63.8173	134
64.0676	164
64.3179	186
64.5682	169
64.8185	154
65.0688	157
65.3191	159
65.5693	173
65.8196	178
66.0699	116
66.3202	131
66.5705	162
66.8208	154
67.0711	117
67.3213	123
67.5716	114
67.8219	157
68.0722	153
68.3225	135
68.5728	136
68.8231	96
69.0733	160
69.3236	165
69.5739	122
69.8242	108
70.0745	161
70.3248	144
70.5751	128
70.8253	150
71.0756	120
71.3259	123
71.5762	165
71.8265	133
72.0768	118
72.3271	113
72.5773	149
72.8276	125
73.0779	160
73.3282	120
73.5785	134
73.8288	157
74.0791	144
74.3294	151
74.5796	110
74.8299	133
75.0802	144
75.3305	132
75.5808	131
75.8311	108
76.0814	118
76.3316	161
76.5819	152
76.8322	123
77.0825	138
77.3328	127
77.5831	163
77.8334	120
78.0836	119
78.3339	132
78.5842	143
78.8345	151
79.0848	132
79.3351	108
79.5854	113
79.8356	137
80.0359	135